Input File: BG-LPF-B.78D
Measure Group: FFT
Measurement: FFT 2
Num of extracted Points: 801
Start Freq: -0 Hz
Span: 800 Hz
FFT Lines:  400 
Window: Uniform
Averaging Mode: RMS
Averaging Type: Linear / Fix Len
Number of Avg:   20
Overload reject: Off

    X[Hz]      Vrms/Hz^(1/... 
  0.000000e+00   2.266384e-04 
  1.000000e+00   1.523150e-07 
  2.000000e+00   6.374513e-08 
  3.000000e+00   5.857510e-08 
  4.000000e+00   5.587485e-08 
  5.000000e+00   4.003637e-08 
  6.000000e+00   4.321832e-08 
  7.000000e+00   2.822437e-08 
  8.000000e+00   2.183316e-08 
  9.000000e+00   2.153425e-08 
  1.000000e+01   2.733353e-08 
  1.100000e+01   2.123442e-08 
  1.200000e+01   2.343968e-08 
  1.300000e+01   1.697441e-08 
  1.400000e+01   1.648551e-08 
  1.500000e+01   1.636414e-08 
  1.600000e+01   1.801932e-08 
  1.700000e+01   1.669266e-08 
  1.800000e+01   1.717710e-08 
  1.900000e+01   1.409281e-08 
  2.000000e+01   1.235364e-08 
  2.100000e+01   1.723142e-08 
  2.200000e+01   1.216779e-08 
  2.300000e+01   1.413288e-08 
  2.400000e+01   1.201730e-08 
  2.500000e+01   1.293073e-08 
  2.600000e+01   1.434361e-08 
  2.700000e+01   1.358484e-08 
  2.800000e+01   1.443822e-08 
  2.900000e+01   9.789573e-09 
  3.000000e+01   1.054985e-08 
  3.100000e+01   1.214208e-08 
  3.200000e+01   1.088716e-08 
  3.300000e+01   1.217904e-08 
  3.400000e+01   1.035736e-08 
  3.500000e+01   9.498895e-09 
  3.600000e+01   1.221378e-08 
  3.700000e+01   1.215432e-08 
  3.800000e+01   1.098498e-08 
  3.900000e+01   1.181960e-08 
  4.000000e+01   9.387326e-09 
  4.100000e+01   1.090307e-08 
  4.200000e+01   9.691350e-09 
  4.300000e+01   1.039024e-08 
  4.400000e+01   8.879374e-09 
  4.500000e+01   9.192959e-09 
  4.600000e+01   9.795283e-09 
  4.700000e+01   8.172274e-09 
  4.800000e+01   5.797268e-09 
  4.900000e+01   7.460189e-09 
  5.000000e+01   1.206724e-08 
  5.100000e+01   9.299618e-09 
  5.200000e+01   9.013763e-09 
  5.300000e+01   8.678088e-09 
  5.400000e+01   8.062313e-09 
  5.500000e+01   7.181179e-09 
  5.600000e+01   7.531008e-09 
  5.700000e+01   7.414824e-09 
  5.800000e+01   7.199979e-09 
  5.900000e+01   7.527070e-09 
  6.000000e+01   2.146021e-08 
  6.100000e+01   5.900681e-09 
  6.200000e+01   6.971764e-09 
  6.300000e+01   7.270339e-09 
  6.400000e+01   7.565008e-09 
  6.500000e+01   5.418934e-09 
  6.600000e+01   6.376645e-09 
  6.700000e+01   9.566635e-09 
  6.800000e+01   6.490543e-09 
  6.900000e+01   7.180736e-09 
  7.000000e+01   7.626495e-09 
  7.100000e+01   7.130368e-09 
  7.200000e+01   7.314471e-09 
  7.300000e+01   6.541902e-09 
  7.400000e+01   7.847643e-09 
  7.500000e+01   7.425857e-09 
  7.600000e+01   6.073813e-09 
  7.700000e+01   6.705933e-09 
  7.800000e+01   5.401944e-09 
  7.900000e+01   7.548559e-09 
  8.000000e+01   5.842036e-09 
  8.100000e+01   7.094644e-09 
  8.200000e+01   6.717463e-09 
  8.300000e+01   5.814877e-09 
  8.400000e+01   7.311684e-09 
  8.500000e+01   6.456442e-09 
  8.600000e+01   5.994667e-09 
  8.700000e+01   5.963425e-09 
  8.800000e+01   6.616976e-09 
  8.900000e+01   7.047062e-09 
  9.000000e+01   6.122942e-09 
  9.100000e+01   4.622665e-09 
  9.200000e+01   6.374933e-09 
  9.300000e+01   7.732528e-09 
  9.400000e+01   5.955481e-09 
  9.500000e+01   5.570304e-09 
  9.600000e+01   5.419418e-09 
  9.700000e+01   6.459588e-09 
  9.800000e+01   6.615872e-09 
  9.900000e+01   5.778867e-09 
  1.000000e+02   5.119547e-09 
  1.010000e+02   7.018444e-09 
  1.020000e+02   6.240044e-09 
  1.030000e+02   6.746113e-09 
  1.040000e+02   5.202221e-09 
  1.050000e+02   6.322430e-09 
  1.060000e+02   4.803851e-09 
  1.070000e+02   6.579063e-09 
  1.080000e+02   5.539197e-09 
  1.090000e+02   5.521019e-09 
  1.100000e+02   5.462487e-09 
  1.110000e+02   4.396335e-09 
  1.120000e+02   4.295543e-09 
  1.130000e+02   4.933921e-09 
  1.140000e+02   5.624161e-09 
  1.150000e+02   5.962546e-09 
  1.160000e+02   5.498393e-09 
  1.170000e+02   6.004628e-09 
  1.180000e+02   4.937257e-09 
  1.190000e+02   5.953222e-09 
  1.200000e+02   9.155590e-09 
  1.210000e+02   5.776422e-09 
  1.220000e+02   6.776209e-09 
  1.230000e+02   6.047045e-09 
  1.240000e+02   4.685537e-09 
  1.250000e+02   5.682861e-09 
  1.260000e+02   6.114333e-09 
  1.270000e+02   5.833925e-09 
  1.280000e+02   5.943834e-09 
  1.290000e+02   4.742722e-09 
  1.300000e+02   4.931802e-09 
  1.310000e+02   5.500727e-09 
  1.320000e+02   5.875835e-09 
  1.330000e+02   5.543510e-09 
  1.340000e+02   5.851782e-09 
  1.350000e+02   6.214520e-09 
  1.360000e+02   5.252128e-09 
  1.370000e+02   5.002967e-09 
  1.380000e+02   5.928389e-09 
  1.390000e+02   5.944277e-09 
  1.400000e+02   6.862017e-09 
  1.410000e+02   4.787950e-09 
  1.420000e+02   5.652182e-09 
  1.430000e+02   5.778933e-09 
  1.440000e+02   4.533014e-09 
  1.450000e+02   5.139805e-09 
  1.460000e+02   6.256537e-09 
  1.470000e+02   5.469857e-09 
  1.480000e+02   5.222211e-09 
  1.490000e+02   3.711790e-09 
  1.500000e+02   4.812085e-09 
  1.510000e+02   5.218352e-09 
  1.520000e+02   5.689980e-09 
  1.530000e+02   5.374499e-09 
  1.540000e+02   5.678075e-09 
  1.550000e+02   5.496491e-09 
  1.560000e+02   4.885760e-09 
  1.570000e+02   4.230443e-09 
  1.580000e+02   6.156906e-09 
  1.590000e+02   5.054882e-09 
  1.600000e+02   6.259786e-09 
  1.610000e+02   5.118256e-09 
  1.620000e+02   4.201448e-09 
  1.630000e+02   5.517601e-09 
  1.640000e+02   4.970747e-09 
  1.650000e+02   5.561429e-09 
  1.660000e+02   5.331860e-09 
  1.670000e+02   4.889447e-09 
  1.680000e+02   5.495261e-09 
  1.690000e+02   4.911274e-09 
  1.700000e+02   4.786024e-09 
  1.710000e+02   5.051090e-09 
  1.720000e+02   4.767637e-09 
  1.730000e+02   5.447093e-09 
  1.740000e+02   5.796255e-09 
  1.750000e+02   4.907244e-09 
  1.760000e+02   5.004515e-09 
  1.770000e+02   5.291296e-09 
  1.780000e+02   5.052216e-09 
  1.790000e+02   5.043890e-09 
  1.800000e+02   1.589152e-08 
  1.810000e+02   5.085287e-09 
  1.820000e+02   5.084758e-09 
  1.830000e+02   4.724422e-09 
  1.840000e+02   5.264802e-09 
  1.850000e+02   5.604189e-09 
  1.860000e+02   5.307542e-09 
  1.870000e+02   5.675677e-09 
  1.880000e+02   5.228992e-09 
  1.890000e+02   6.700733e-09 
  1.900000e+02   5.490085e-09 
  1.910000e+02   5.668451e-09 
  1.920000e+02   5.150830e-09 
  1.930000e+02   5.616527e-09 
  1.940000e+02   5.565439e-09 
  1.950000e+02   5.817609e-09 
  1.960000e+02   4.400819e-09 
  1.970000e+02   5.485578e-09 
  1.980000e+02   5.569675e-09 
  1.990000e+02   5.358410e-09 
  2.000000e+02   5.578433e-09 
  2.010000e+02   6.317180e-09 
  2.020000e+02   4.816435e-09 
  2.030000e+02   4.638339e-09 
  2.040000e+02   4.855814e-09 
  2.050000e+02   4.686537e-09 
  2.060000e+02   4.667557e-09 
  2.070000e+02   5.500266e-09 
  2.080000e+02   5.466180e-09 
  2.090000e+02   5.094590e-09 
  2.100000e+02   4.378693e-09 
  2.110000e+02   5.031234e-09 
  2.120000e+02   4.510317e-09 
  2.130000e+02   5.116529e-09 
  2.140000e+02   5.622527e-09 
  2.150000e+02   4.815444e-09 
  2.160000e+02   5.055279e-09 
  2.170000e+02   5.176061e-09 
  2.180000e+02   4.513466e-09 
  2.190000e+02   5.285652e-09 
  2.200000e+02   5.019393e-09 
  2.210000e+02   5.054538e-09 
  2.220000e+02   4.843651e-09 
  2.230000e+02   5.480891e-09 
  2.240000e+02   5.257641e-09 
  2.250000e+02   5.167119e-09 
  2.260000e+02   5.168514e-09 
  2.270000e+02   4.782138e-09 
  2.280000e+02   5.244009e-09 
  2.290000e+02   5.745586e-09 
  2.300000e+02   5.246916e-09 
  2.310000e+02   4.330543e-09 
  2.320000e+02   4.902020e-09 
  2.330000e+02   4.790464e-09 
  2.340000e+02   4.843875e-09 
  2.350000e+02   4.939139e-09 
  2.360000e+02   4.940814e-09 
  2.370000e+02   5.003256e-09 
  2.380000e+02   4.816392e-09 
  2.390000e+02   4.166800e-09 
  2.400000e+02   5.937609e-09 
  2.410000e+02   5.384603e-09 
  2.420000e+02   4.836004e-09 
  2.430000e+02   4.998312e-09 
  2.440000e+02   5.327280e-09 
  2.450000e+02   5.066045e-09 
  2.460000e+02   4.725284e-09 
  2.470000e+02   4.526510e-09 
  2.480000e+02   5.475945e-09 
  2.490000e+02   4.984756e-09 
  2.500000e+02   5.467692e-09 
  2.510000e+02   4.765400e-09 
  2.520000e+02   5.281542e-09 
  2.530000e+02   5.306743e-09 
  2.540000e+02   3.965393e-09 
  2.550000e+02   4.471661e-09 
  2.560000e+02   5.642938e-09 
  2.570000e+02   5.166281e-09 
  2.580000e+02   4.947320e-09 
  2.590000e+02   5.218690e-09 
  2.600000e+02   4.810910e-09 
  2.610000e+02   4.548680e-09 
  2.620000e+02   4.900505e-09 
  2.630000e+02   5.593169e-09 
  2.640000e+02   4.295556e-09 
  2.650000e+02   5.230102e-09 
  2.660000e+02   5.874901e-09 
  2.670000e+02   5.190348e-09 
  2.680000e+02   5.248961e-09 
  2.690000e+02   4.774822e-09 
  2.700000e+02   5.058111e-09 
  2.710000e+02   4.564328e-09 
  2.720000e+02   3.642991e-09 
  2.730000e+02   4.234222e-09 
  2.740000e+02   5.479853e-09 
  2.750000e+02   4.581520e-09 
  2.760000e+02   4.465726e-09 
  2.770000e+02   3.972271e-09 
  2.780000e+02   4.452619e-09 
  2.790000e+02   5.087949e-09 
  2.800000e+02   4.823072e-09 
  2.810000e+02   3.961551e-09 
  2.820000e+02   5.429775e-09 
  2.830000e+02   5.464764e-09 
  2.840000e+02   5.426106e-09 
  2.850000e+02   5.220499e-09 
  2.860000e+02   6.026641e-09 
  2.870000e+02   4.859026e-09 
  2.880000e+02   5.388110e-09 
  2.890000e+02   3.833712e-09 
  2.900000e+02   4.753101e-09 
  2.910000e+02   5.476362e-09 
  2.920000e+02   4.965735e-09 
  2.930000e+02   3.950955e-09 
  2.940000e+02   3.901114e-09 
  2.950000e+02   4.933303e-09 
  2.960000e+02   4.190624e-09 
  2.970000e+02   4.565684e-09 
  2.980000e+02   5.494782e-09 
  2.990000e+02   5.147969e-09 
  3.000000e+02   1.122126e-08 
  3.010000e+02   5.271535e-09 
  3.020000e+02   5.096238e-09 
  3.030000e+02   5.616054e-09 
  3.040000e+02   4.546242e-09 
  3.050000e+02   4.240106e-09 
  3.060000e+02   4.729301e-09 
  3.070000e+02   4.912553e-09 
  3.080000e+02   4.918377e-09 
  3.090000e+02   4.603256e-09 
  3.100000e+02   5.645269e-09 
  3.110000e+02   4.674167e-09 
  3.120000e+02   6.059132e-09 
  3.130000e+02   5.048050e-09 
  3.140000e+02   5.652518e-09 
  3.150000e+02   4.632200e-09 
  3.160000e+02   4.987069e-09 
  3.170000e+02   4.994529e-09 
  3.180000e+02   6.744561e-09 
  3.190000e+02   4.646553e-09 
  3.200000e+02   5.852932e-09 
  3.210000e+02   4.199666e-09 
  3.220000e+02   5.288473e-09 
  3.230000e+02   4.966781e-09 
  3.240000e+02   5.113552e-09 
  3.250000e+02   5.438149e-09 
  3.260000e+02   5.193185e-09 
  3.270000e+02   5.746972e-09 
  3.280000e+02   5.089184e-09 
  3.290000e+02   4.647924e-09 
  3.300000e+02   5.473826e-09 
  3.310000e+02   5.515495e-09 
  3.320000e+02   4.348349e-09 
  3.330000e+02   5.092256e-09 
  3.340000e+02   5.226602e-09 
  3.350000e+02   4.878542e-09 
  3.360000e+02   4.358576e-09 
  3.370000e+02   5.655615e-09 
  3.380000e+02   4.670956e-09 
  3.390000e+02   4.984031e-09 
  3.400000e+02   6.105594e-09 
  3.410000e+02   5.017474e-09 
  3.420000e+02   5.705223e-09 
  3.430000e+02   3.875051e-09 
  3.440000e+02   5.278205e-09 
  3.450000e+02   4.723318e-09 
  3.460000e+02   4.596362e-09 
  3.470000e+02   4.625907e-09 
  3.480000e+02   4.836391e-09 
  3.490000e+02   4.906826e-09 
  3.500000e+02   4.441417e-09 
  3.510000e+02   5.737148e-09 
  3.520000e+02   5.096094e-09 
  3.530000e+02   4.981237e-09 
  3.540000e+02   4.529000e-09 
  3.550000e+02   5.268680e-09 
  3.560000e+02   5.442466e-09 
  3.570000e+02   5.479142e-09 
  3.580000e+02   5.073588e-09 
  3.590000e+02   5.780574e-09 
  3.600000e+02   5.918092e-09 
  3.610000e+02   5.017530e-09 
  3.620000e+02   4.926117e-09 
  3.630000e+02   4.325936e-09 
  3.640000e+02   5.508790e-09 
  3.650000e+02   4.765425e-09 
  3.660000e+02   5.020358e-09 
  3.670000e+02   4.691252e-09 
  3.680000e+02   5.590256e-09 
  3.690000e+02   4.999700e-09 
  3.700000e+02   4.669691e-09 
  3.710000e+02   4.321658e-09 
  3.720000e+02   3.812191e-09 
  3.730000e+02   4.747462e-09 
  3.740000e+02   4.722803e-09 
  3.750000e+02   6.462380e-09 
  3.760000e+02   5.030540e-09 
  3.770000e+02   5.322863e-09 
  3.780000e+02   5.089078e-09 
  3.790000e+02   4.416615e-09 
  3.800000e+02   4.988799e-09 
  3.810000e+02   4.732154e-09 
  3.820000e+02   4.250545e-09 
  3.830000e+02   5.099183e-09 
  3.840000e+02   4.066564e-09 
  3.850000e+02   6.166162e-09 
  3.860000e+02   5.395592e-09 
  3.870000e+02   5.937375e-09 
  3.880000e+02   5.799566e-09 
  3.890000e+02   5.680200e-09 
  3.900000e+02   5.388057e-09 
  3.910000e+02   5.068314e-09 
  3.920000e+02   4.314334e-09 
  3.930000e+02   5.246125e-09 
  3.940000e+02   4.790791e-09 
  3.950000e+02   5.104395e-09 
  3.960000e+02   3.817480e-09 
  3.970000e+02   4.791034e-09 
  3.980000e+02   4.096242e-09 
  3.990000e+02   4.646325e-09 
  4.000000e+02   5.000169e-09 
  4.010000e+02   4.983641e-09 
  4.020000e+02   5.052996e-09 
  4.030000e+02   5.484901e-09 
  4.040000e+02   5.963173e-09 
  4.050000e+02   5.010932e-09 
  4.060000e+02   4.337300e-09 
  4.070000e+02   4.916810e-09 
  4.080000e+02   3.738273e-09 
  4.090000e+02   5.258908e-09 
  4.100000e+02   6.177942e-09 
  4.110000e+02   5.262477e-09 
  4.120000e+02   4.877583e-09 
  4.130000e+02   5.892141e-09 
  4.140000e+02   5.356867e-09 
  4.150000e+02   5.904672e-09 
  4.160000e+02   5.027888e-09 
  4.170000e+02   4.604103e-09 
  4.180000e+02   5.136751e-09 
  4.190000e+02   4.079541e-09 
  4.200000e+02   7.359218e-09 
  4.210000e+02   5.090704e-09 
  4.220000e+02   3.704808e-09 
  4.230000e+02   4.549056e-09 
  4.240000e+02   3.863936e-09 
  4.250000e+02   5.593847e-09 
  4.260000e+02   4.115533e-09 
  4.270000e+02   4.704198e-09 
  4.280000e+02   5.725119e-09 
  4.290000e+02   4.942766e-09 
  4.300000e+02   5.794701e-09 
  4.310000e+02   4.762671e-09 
  4.320000e+02   5.010141e-09 
  4.330000e+02   5.822921e-09 
  4.340000e+02   4.375365e-09 
  4.350000e+02   5.220621e-09 
  4.360000e+02   4.522867e-09 
  4.370000e+02   4.297846e-09 
  4.380000e+02   5.197242e-09 
  4.390000e+02   4.787930e-09 
  4.400000e+02   4.959427e-09 
  4.410000e+02   6.144375e-09 
  4.420000e+02   4.737248e-09 
  4.430000e+02   5.239678e-09 
  4.440000e+02   6.404633e-09 
  4.450000e+02   5.814275e-09 
  4.460000e+02   4.758050e-09 
  4.470000e+02   5.216775e-09 
  4.480000e+02   5.445642e-09 
  4.490000e+02   4.336282e-09 
  4.500000e+02   4.686175e-09 
  4.510000e+02   4.781354e-09 
  4.520000e+02   4.733934e-09 
  4.530000e+02   5.787201e-09 
  4.540000e+02   4.835216e-09 
  4.550000e+02   5.733969e-09 
  4.560000e+02   4.753192e-09 
  4.570000e+02   4.859366e-09 
  4.580000e+02   4.895282e-09 
  4.590000e+02   5.225583e-09 
  4.600000e+02   4.651729e-09 
  4.610000e+02   5.744897e-09 
  4.620000e+02   5.349736e-09 
  4.630000e+02   5.205283e-09 
  4.640000e+02   4.937946e-09 
  4.650000e+02   4.970453e-09 
  4.660000e+02   5.140409e-09 
  4.670000e+02   5.489677e-09 
  4.680000e+02   5.679634e-09 
  4.690000e+02   5.236293e-09 
  4.700000e+02   4.360919e-09 
  4.710000e+02   4.355277e-09 
  4.720000e+02   4.377809e-09 
  4.730000e+02   4.136424e-09 
  4.740000e+02   4.338697e-09 
  4.750000e+02   4.336394e-09 
  4.760000e+02   4.877984e-09 
  4.770000e+02   5.236978e-09 
  4.780000e+02   5.842260e-09 
  4.790000e+02   4.496302e-09 
  4.800000e+02   4.639052e-09 
  4.810000e+02   5.190074e-09 
  4.820000e+02   4.576516e-09 
  4.830000e+02   5.565477e-09 
  4.840000e+02   5.535487e-09 
  4.850000e+02   6.045894e-09 
  4.860000e+02   4.236973e-09 
  4.870000e+02   4.442175e-09 
  4.880000e+02   5.085889e-09 
  4.890000e+02   5.655752e-09 
  4.900000e+02   4.906976e-09 
  4.910000e+02   5.391608e-09 
  4.920000e+02   4.378744e-09 
  4.930000e+02   4.294261e-09 
  4.940000e+02   5.634424e-09 
  4.950000e+02   3.836408e-09 
  4.960000e+02   4.512035e-09 
  4.970000e+02   4.397370e-09 
  4.980000e+02   4.882888e-09 
  4.990000e+02   5.297547e-09 
  5.000000e+02   6.760744e-09 
  5.010000e+02   5.374515e-09 
  5.020000e+02   5.299413e-09 
  5.030000e+02   4.331844e-09 
  5.040000e+02   5.055367e-09 
  5.050000e+02   4.684093e-09 
  5.060000e+02   4.159062e-09 
  5.070000e+02   4.336356e-09 
  5.080000e+02   4.821973e-09 
  5.090000e+02   5.535407e-09 
  5.100000e+02   5.585156e-09 
  5.110000e+02   4.214662e-09 
  5.120000e+02   4.554969e-09 
  5.130000e+02   5.180780e-09 
  5.140000e+02   5.694288e-09 
  5.150000e+02   4.704205e-09 
  5.160000e+02   4.444106e-09 
  5.170000e+02   5.392123e-09 
  5.180000e+02   4.787710e-09 
  5.190000e+02   6.428031e-09 
  5.200000e+02   5.346318e-09 
  5.210000e+02   5.224993e-09 
  5.220000e+02   5.430977e-09 
  5.230000e+02   5.236832e-09 
  5.240000e+02   4.681588e-09 
  5.250000e+02   4.997463e-09 
  5.260000e+02   5.678336e-09 
  5.270000e+02   5.134244e-09 
  5.280000e+02   3.884524e-09 
  5.290000e+02   5.097839e-09 
  5.300000e+02   4.888423e-09 
  5.310000e+02   4.968820e-09 
  5.320000e+02   4.734733e-09 
  5.330000e+02   5.233222e-09 
  5.340000e+02   4.929655e-09 
  5.350000e+02   6.037607e-09 
  5.360000e+02   4.453319e-09 
  5.370000e+02   4.794966e-09 
  5.380000e+02   5.128441e-09 
  5.390000e+02   5.713433e-09 
  5.400000e+02   5.186841e-09 
  5.410000e+02   4.332843e-09 
  5.420000e+02   4.495063e-09 
  5.430000e+02   5.653455e-09 
  5.440000e+02   4.278160e-09 
  5.450000e+02   4.482778e-09 
  5.460000e+02   3.934527e-09 
  5.470000e+02   4.714170e-09 
  5.480000e+02   4.047635e-09 
  5.490000e+02   4.250509e-09 
  5.500000e+02   4.793820e-09 
  5.510000e+02   5.381394e-09 
  5.520000e+02   4.624027e-09 
  5.530000e+02   4.621589e-09 
  5.540000e+02   4.039596e-09 
  5.550000e+02   4.017195e-09 
  5.560000e+02   4.780921e-09 
  5.570000e+02   5.579400e-09 
  5.580000e+02   4.899863e-09 
  5.590000e+02   4.630317e-09 
  5.600000e+02   5.038594e-09 
  5.610000e+02   3.409698e-09 
  5.620000e+02   6.226746e-09 
  5.630000e+02   5.447391e-09 
  5.640000e+02   4.511044e-09 
  5.650000e+02   5.816726e-09 
  5.660000e+02   5.068342e-09 
  5.670000e+02   5.161142e-09 
  5.680000e+02   4.849642e-09 
  5.690000e+02   4.803350e-09 
  5.700000e+02   5.301475e-09 
  5.710000e+02   4.257750e-09 
  5.720000e+02   4.806352e-09 
  5.730000e+02   3.993922e-09 
  5.740000e+02   3.697453e-09 
  5.750000e+02   4.907688e-09 
  5.760000e+02   4.226119e-09 
  5.770000e+02   5.244106e-09 
  5.780000e+02   4.986309e-09 
  5.790000e+02   5.897060e-09 
  5.800000e+02   4.909486e-09 
  5.810000e+02   4.122402e-09 
  5.820000e+02   6.449634e-09 
  5.830000e+02   5.648182e-09 
  5.840000e+02   4.742571e-09 
  5.850000e+02   5.528047e-09 
  5.860000e+02   4.728910e-09 
  5.870000e+02   4.847805e-09 
  5.880000e+02   3.841560e-09 
  5.890000e+02   4.398133e-09 
  5.900000e+02   4.435086e-09 
  5.910000e+02   5.783491e-09 
  5.920000e+02   4.909959e-09 
  5.930000e+02   4.487490e-09 
  5.940000e+02   4.425461e-09 
  5.950000e+02   3.932549e-09 
  5.960000e+02   5.345013e-09 
  5.970000e+02   3.740130e-09 
  5.980000e+02   4.875590e-09 
  5.990000e+02   5.279663e-09 
  6.000000e+02   6.121835e-09 
  6.010000e+02   4.768533e-09 
  6.020000e+02   5.688932e-09 
  6.030000e+02   4.826053e-09 
  6.040000e+02   5.542240e-09 
  6.050000e+02   5.726296e-09 
  6.060000e+02   5.398636e-09 
  6.070000e+02   5.345543e-09 
  6.080000e+02   5.286399e-09 
  6.090000e+02   4.828613e-09 
  6.100000e+02   5.094371e-09 
  6.110000e+02   4.644307e-09 
  6.120000e+02   4.219762e-09 
  6.130000e+02   4.874769e-09 
  6.140000e+02   4.498692e-09 
  6.150000e+02   5.712243e-09 
  6.160000e+02   5.340758e-09 
  6.170000e+02   4.462106e-09 
  6.180000e+02   3.701051e-09 
  6.190000e+02   4.955090e-09 
  6.200000e+02   4.072978e-09 
  6.210000e+02   4.348556e-09 
  6.220000e+02   5.200349e-09 
  6.230000e+02   4.538590e-09 
  6.240000e+02   5.661062e-09 
  6.250000e+02   5.604799e-09 
  6.260000e+02   5.620385e-09 
  6.270000e+02   3.706123e-09 
  6.280000e+02   4.925020e-09 
  6.290000e+02   4.939885e-09 
  6.300000e+02   5.547065e-09 
  6.310000e+02   4.945537e-09 
  6.320000e+02   4.593888e-09 
  6.330000e+02   4.866263e-09 
  6.340000e+02   4.657337e-09 
  6.350000e+02   5.003325e-09 
  6.360000e+02   5.499541e-09 
  6.370000e+02   4.212363e-09 
  6.380000e+02   4.302811e-09 
  6.390000e+02   4.589655e-09 
  6.400000e+02   5.453572e-09 
  6.410000e+02   4.500400e-09 
  6.420000e+02   4.998528e-09 
  6.430000e+02   3.692496e-09 
  6.440000e+02   5.297486e-09 
  6.450000e+02   5.204540e-09 
  6.460000e+02   4.961886e-09 
  6.470000e+02   4.592658e-09 
  6.480000e+02   5.245807e-09 
  6.490000e+02   4.684376e-09 
  6.500000e+02   4.874134e-09 
  6.510000e+02   6.264328e-09 
  6.520000e+02   5.349042e-09 
  6.530000e+02   4.499313e-09 
  6.540000e+02   4.721616e-09 
  6.550000e+02   4.654522e-09 
  6.560000e+02   4.593496e-09 
  6.570000e+02   4.745872e-09 
  6.580000e+02   4.556693e-09 
  6.590000e+02   5.093817e-09 
  6.600000e+02   4.679237e-09 
  6.610000e+02   4.509908e-09 
  6.620000e+02   4.700120e-09 
  6.630000e+02   5.311072e-09 
  6.640000e+02   5.022137e-09 
  6.650000e+02   4.290198e-09 
  6.660000e+02   5.368120e-09 
  6.670000e+02   5.105331e-09 
  6.680000e+02   4.398881e-09 
  6.690000e+02   5.546808e-09 
  6.700000e+02   4.853023e-09 
  6.710000e+02   4.495128e-09 
  6.720000e+02   4.154032e-09 
  6.730000e+02   4.918415e-09 
  6.740000e+02   5.187572e-09 
  6.750000e+02   4.629483e-09 
  6.760000e+02   5.149825e-09 
  6.770000e+02   4.673437e-09 
  6.780000e+02   4.860152e-09 
  6.790000e+02   4.098598e-09 
  6.800000e+02   4.814875e-09 
  6.810000e+02   4.231679e-09 
  6.820000e+02   5.201399e-09 
  6.830000e+02   4.923157e-09 
  6.840000e+02   5.332199e-09 
  6.850000e+02   5.144959e-09 
  6.860000e+02   3.992453e-09 
  6.870000e+02   5.372633e-09 
  6.880000e+02   5.731894e-09 
  6.890000e+02   5.180932e-09 
  6.900000e+02   6.635066e-09 
  6.910000e+02   5.661978e-09 
  6.920000e+02   5.625329e-09 
  6.930000e+02   4.401592e-09 
  6.940000e+02   4.805614e-09 
  6.950000e+02   4.806822e-09 
  6.960000e+02   4.065485e-09 
  6.970000e+02   5.258760e-09 
  6.980000e+02   5.520279e-09 
  6.990000e+02   4.777129e-09 
  7.000000e+02   4.823953e-09 
  7.010000e+02   5.438551e-09 
  7.020000e+02   5.041553e-09 
  7.030000e+02   4.422678e-09 
  7.040000e+02   4.865789e-09 
  7.050000e+02   5.167635e-09 
  7.060000e+02   4.733022e-09 
  7.070000e+02   4.499342e-09 
  7.080000e+02   4.405805e-09 
  7.090000e+02   4.693534e-09 
  7.100000e+02   5.098031e-09 
  7.110000e+02   5.360845e-09 
  7.120000e+02   4.318862e-09 
  7.130000e+02   4.435188e-09 
  7.140000e+02   5.112914e-09 
  7.150000e+02   5.311166e-09 
  7.160000e+02   5.607606e-09 
  7.170000e+02   4.909728e-09 
  7.180000e+02   6.387744e-09 
  7.190000e+02   5.220905e-09 
  7.200000e+02   5.260216e-09 
  7.210000e+02   4.487063e-09 
  7.220000e+02   5.862609e-09 
  7.230000e+02   4.587401e-09 
  7.240000e+02   4.922975e-09 
  7.250000e+02   5.084459e-09 
  7.260000e+02   5.635637e-09 
  7.270000e+02   4.490678e-09 
  7.280000e+02   5.305619e-09 
  7.290000e+02   6.041083e-09 
  7.300000e+02   5.454861e-09 
  7.310000e+02   5.115295e-09 
  7.320000e+02   4.863610e-09 
  7.330000e+02   4.592083e-09 
  7.340000e+02   5.105115e-09 
  7.350000e+02   4.949683e-09 
  7.360000e+02   5.687692e-09 
  7.370000e+02   4.646665e-09 
  7.380000e+02   4.777513e-09 
  7.390000e+02   5.627162e-09 
  7.400000e+02   5.774564e-09 
  7.410000e+02   5.371526e-09 
  7.420000e+02   5.080163e-09 
  7.430000e+02   5.436092e-09 
  7.440000e+02   4.411358e-09 
  7.450000e+02   4.650750e-09 
  7.460000e+02   4.621930e-09 
  7.470000e+02   4.143154e-09 
  7.480000e+02   3.842808e-09 
  7.490000e+02   4.937257e-09 
  7.500000e+02   5.161537e-09 
  7.510000e+02   3.607534e-09 
  7.520000e+02   3.796111e-09 
  7.530000e+02   4.736397e-09 
  7.540000e+02   3.174415e-09 
  7.550000e+02   6.075044e-09 
  7.560000e+02   5.270559e-09 
  7.570000e+02   4.806985e-09 
  7.580000e+02   4.859846e-09 
  7.590000e+02   5.009563e-09 
  7.600000e+02   5.174743e-09 
  7.610000e+02   4.907952e-09 
  7.620000e+02   4.561397e-09 
  7.630000e+02   6.445315e-09 
  7.640000e+02   5.427273e-09 
  7.650000e+02   5.065689e-09 
  7.660000e+02   5.461755e-09 
  7.670000e+02   4.561182e-09 
  7.680000e+02   4.897214e-09 
  7.690000e+02   5.139380e-09 
  7.700000e+02   5.215178e-09 
  7.710000e+02   5.056925e-09 
  7.720000e+02   5.077928e-09 
  7.730000e+02   3.762665e-09 
  7.740000e+02   4.915094e-09 
  7.750000e+02   5.342382e-09 
  7.760000e+02   6.246272e-09 
  7.770000e+02   3.887783e-09 
  7.780000e+02   4.655530e-09 
  7.790000e+02   3.842461e-09 
  7.800000e+02   5.483042e-09 
  7.810000e+02   4.788187e-09 
  7.820000e+02   5.648883e-09 
  7.830000e+02   5.243618e-09 
  7.840000e+02   5.217230e-09 
  7.850000e+02   4.967541e-09 
  7.860000e+02   5.094952e-09 
  7.870000e+02   4.381175e-09 
  7.880000e+02   4.778643e-09 
  7.890000e+02   3.848996e-09 
  7.900000e+02   6.216560e-09 
  7.910000e+02   4.414530e-09 
  7.920000e+02   4.003990e-09 
  7.930000e+02   5.898272e-09 
  7.940000e+02   4.742080e-09 
  7.950000e+02   5.064532e-09 
  7.960000e+02   4.876394e-09 
  7.970000e+02   4.420543e-09 
  7.980000e+02   4.034755e-09 
  7.990000e+02   4.260527e-09 
  8.000000e+02   5.045827e-09 
